IonEnergy[MeV]	dE/dx(elec.)[MeV/mm]	dE/dx(nucl.)[MeV/mm]
0.010	7.298E-03	1.525E-04
0.011	7.637E-03	1.416E-04
0.012	7.959E-03	1.324E-04
0.013	8.265E-03	1.243E-04
0.014	8.558E-03	1.173E-04
0.015	8.838E-03	1.111E-04
0.016	9.106E-03	1.056E-04
0.017	9.364E-03	1.006E-04
0.018	9.613E-03	9.613E-05
0.020	1.008E-02	8.836E-05
0.023	1.063E-02	8.038E-05
0.025	1.113E-02	7.381E-05
0.028	1.159E-02	6.832E-05
0.030	1.202E-02	6.364E-05
0.033	1.241E-02	5.960E-05
0.035	1.278E-02	5.609E-05
0.038	1.313E-02	5.299E-05
0.040	1.345E-02	5.024E-05
0.045	1.403E-02	4.558E-05
0.050	1.452E-02	4.176E-05
0.055	1.495E-02	3.857E-05
0.060	1.532E-02	3.586E-05
0.065	1.564E-02	3.353E-05
0.070	1.590E-02	3.150E-05
0.080	1.630E-02	2.815E-05
0.090	1.656E-02	2.548E-05
0.100	1.669E-02	2.330E-05
0.110	1.673E-02	2.148E-05
0.120	1.670E-02	1.994E-05
0.130	1.660E-02	1.863E-05
0.140	1.645E-02	1.748E-05
0.150	1.626E-02	1.647E-05
0.160	1.604E-02	1.558E-05
0.170	1.580E-02	1.479E-05
0.180	1.555E-02	1.408E-05
0.200	1.501E-02	1.286E-05
0.225	1.430E-02	1.161E-05
0.250	1.361E-02	1.060E-05
0.275	1.295E-02	9.752E-06
0.300	1.232E-02	9.040E-06
0.325	1.173E-02	8.431E-06
0.350	1.119E-02	7.902E-06
0.375	1.069E-02	7.439E-06
0.400	1.023E-02	7.030E-06
0.450	9.406E-03	6.340E-06
0.500	8.708E-03	5.779E-06
0.550	8.109E-03	5.314E-06
0.600	7.591E-03	4.921E-06
0.650	7.141E-03	4.585E-06
0.700	6.746E-03	4.294E-06
0.800	6.085E-03	3.815E-06
0.900	5.555E-03	3.437E-06
1.000	5.120E-03	3.129E-06
1.100	4.755E-03	2.875E-06
1.200	4.445E-03	2.660E-06
1.300	4.177E-03	2.477E-06
1.400	3.944E-03	2.318E-06
1.500	3.738E-03	2.180E-06
1.600	3.554E-03	2.058E-06
1.700	3.390E-03	1.949E-06
1.800	3.242E-03	1.852E-06
2.000	2.985E-03	1.685E-06
2.250	2.738E-03	1.515E-06
2.500	2.507E-03	1.378E-06
2.750	2.324E-03	1.265E-06
3.000	2.168E-03	1.170E-06
3.250	2.033E-03	1.088E-06
3.500	1.915E-03	1.018E-06
3.750	1.811E-03	9.563E-07
4.000	1.719E-03	9.021E-07
4.500	1.561E-03	8.109E-07
5.000	1.432E-03	7.371E-07
5.500	1.324E-03	6.760E-07
6.000	1.233E-03	6.247E-07
6.500	1.154E-03	5.809E-07
7.000	1.085E-03	5.431E-07
8.000	9.711E-04	4.809E-07
9.000	8.803E-04	4.320E-07
10.000	8.061E-04	3.924E-07
11.000	7.443E-04	3.597E-07
12.000	6.919E-04	3.323E-07
13.000	6.469E-04	3.088E-07
14.000	6.077E-04	2.886E-07
15.000	5.734E-04	2.709E-07
16.000	5.431E-04	2.554E-07
17.000	5.160E-04	2.416E-07
18.000	4.917E-04	2.293E-07
20.000	4.498E-04	2.081E-07
22.500	4.072E-04	1.868E-07
25.000	3.725E-04	1.696E-07
27.500	3.436E-04	1.554E-07
30.000	3.192E-04	1.434E-07
32.500	2.984E-04	1.332E-07
35.000	2.802E-04	1.244E-07
37.500	2.644E-04	1.168E-07
40.000	2.504E-04	1.100E-07
